##TITLE= STDSULFAMETOSSIPIRIDAZINA
##JCAMP-DX= 4.24
##DATA TYPE= INFRARED SPECTRUM
##ORIGIN= JASCO
##OWNER= 
##DATE= 22/05/03
##TIME= 12:21:13
##SPECTROMETER/DATA SYSTEM= 
##RESOLUTION= 
##DELTAX=   0.48211674
##XUNITS= 1/CM
##YUNITS= TRANSMITTANCE
##XFACTOR= 1.00000
##YFACTOR= 0.0001
##FIRSTX=   799.8317
##LASTX=  4000.1226
##NPOINTS=     6639
##FIRSTY=      0.78606
##MAXY=      1.22321
##MINY=      0.63484
##XYDATA= (X++(Y..Y))
799.8317 7861 7839 7813 7785 7757 7738 7733 7749 7784 7833 7881 7915 7928 7922
806.5813 7908 7895 7891 7891 7891 7887 7878 7871 7872 7880 7890 7896 7895 7888
813.3309 7880 7875 7869 7854 7823 7772 7706 7636 7574 7528 7499 7482 7470 7455
820.0806 7434 7406 7373 7336 7297 7254 7202 7137 7060 6973 6887 6810 6749 6702
826.8302 6663 6624 6575 6516 6451 6392 6353 6348 6386 6469 6593 6748 6918 7089
833.5798 7245 7374 7468 7525 7545 7534 7498 7443 7375 7300 7223 7151 7088 7035
840.3295 6993 6961 6945 6955 7006 7109 7270 7478 7712 7948 8162 8343 8489 8606
847.0791 8701 8780 8844 8892 8916 8913 8881 8826 8757 8690 8635 8606 8607 8643
853.8287 8712 8811 8937 9079 9226 9365 9486 9580 9648 9692 9720 9738 9753 9766
860.5784 9779 9790 9794 9790 9777 9755 9731 9707 9687 9672 9662 9656 9652 9648
867.3280 9641 9628 9609 9585 9561 9540 9528 9524 9529 9542 9558 9575 9586 9588
874.0776 9578 9555 9525 9491 9460 9433 9412 9396 9382 9372 9364 9360 9357 9355
880.8273 9354 9351 9346 9340 9331 9319 9305 9289 9273 9258 9245 9234 9224 9214
887.5769 9199 9175 9140 9096 9045 8996 8951 8912 8878 8844 8810 8774 8736 8698
894.3265 8658 8615 8567 8513 8457 8402 8352 8310 8272 8234 8192 8144 8090 8034
901.0762 7979 7924 7870 7812 7749 7681 7611 7540 7470 7403 7337 7274 7210 7145
907.8258 7078 7009 6940 6873 6811 6753 6699 6647 6598 6555 6519 6490 6470 6457
914.5754 6451 6457 6477 6513 6565 6630 6707 6792 6886 6985 7084 7179 7261 7326
921.3251 7374 7407 7430 7447 7460 7470 7476 7480 7485 7494 7514 7546 7595 7661
928.0747 7743 7839 7949 8070 8203 8351 8513 8688 8871 9058 9241 9416 9580 9731
934.8243 9868 9993 10106 10209 10305 10393 10476 10551 10618 10677 10729 10773
940.6097 10813 10850 10885 10917 10948 10974 10996 11013 11026 11035 11040
945.9130 11041 11039 11035 11030 11027 11027 11029 11034 11036 11034 11023
951.2163 11003 10976 10943 10912 10885 10865 10848 10832 10815 10794 10770
956.5196 10746 10721 10698 10678 10662 10648 10637 10626 10613 10597 10580
961.8229 10566 10560 10563 10574 10587 10599 10608 10613 10617 10620 10623
967.1262 10624 10622 10618 10615 10612 10609 10604 10594 10580 10561 10538
972.4294 10507 10465 10409 10340 10268 10200 10145 10102 10064 10024 9974 9915
978.2148 9851 9789 9732 9681 9634 9589 9544 9501 9460 9422 9385 9349 9309 9264
984.9645 9215 9162 9108 9057 9009 8965 8924 8885 8845 8803 8757 8703 8638 8561
991.7141 8474 8384 8295 8212 8135 8062 7990 7918 7845 7777 7719 7676 7656 7662
998.4637 7695 7754 7832 7918 8001 8066 8102 8101 8061 7986 7888 7782 7686 7615
1005.2134 7584 7601 7669 7787 7948 8143 8361 8591 8826 9057 9278 9484 9672
1011.4809 9840 9989 10119 10226 10308 10363 10390 10398 10393 10387 10385
1016.7842 10389 10396 10404 10411 10414 10415 10413 10411 10409 10408 10410
1022.0875 10414 10418 10420 10417 10410 10402 10393 10385 10377 10368 10357
1027.3907 10346 10337 10332 10328 10322 10312 10295 10272 10242 10203 10155
1032.6941 10100 10050 10020 10024 10069 10152 10257 10364 10453 10515 10548
1037.9973 10556 10547 10527 10503 10479 10460 10448 10446 10451 10462 10474
1043.3007 10485 10493 10496 10497 10496 10497 10502 10512 10527 10546 10565
1048.6039 10582 10592 10592 10579 10552 10515 10471 10425 10378 10330 10279
1053.9072 10222 10161 10095 10027 9957 9887 9817 9749 9687 9634 9590 9556 9530
1060.1747 9510 9494 9479 9462 9438 9404 9357 9298 9228 9152 9072 8993 8916
1066.4423 8841 8769 8699 8629 8559 8488 8417 8348 8280 8211 8139 8063 7985
1072.7097 7906 7831 7761 7694 7628 7562 7494 7427 7360 7294 7231 7169 7109
1078.9773 7053 7000 6952 6906 6859 6810 6758 6708 6665 6632 6614 6608 6615
1085.2448 6630 6653 6684 6724 6775 6836 6905 6979 7054 7127 7194 7256 7315
1091.5123 7380 7461 7572 7723 7918 8152 8413 8684 8949 9190 9399 9570 9703
1097.7798 9801 9870 9915 9940 9947 9935 9907 9863 9808 9748 9685 9620 9554
1104.0474 9484 9407 9324 9233 9138 9038 8937 8835 8734 8635 8541 8454 8377
1110.3148 8313 8265 8234 8220 8222 8240 8276 8327 8388 8454 8519 8578 8627
1116.5824 8665 8687 8690 8670 8626 8563 8486 8401 8313 8221 8122 8013 7894
1122.8499 7771 7650 7540 7447 7375 7325 7299 7298 7325 7381 7469 7586 7731
1129.1174 7902 8095 8303 8519 8733 8939 9128 9294 9434 9543 9621 9671 9702
1135.3849 9728 9764 9823 9909 10019 10141 10262 10367 10446 10493 10506 10486
1141.1703 10439 10367 10276 10169 10050 9922 9785 9640 9482 9309 9118 8909
1146.9557 8685 8451 8215 7986 7770 7573 7399 7248 7121 7014 6924 6849 6792
1153.2233 6759 6757 6789 6858 6960 7086 7231 7387 7554 7732 7921 8125 8341
1159.4907 8569 8807 9051 9298 9542 9777 9996 10193 10367 10515 10642 10749
1165.2761 10839 10911 10968 11013 11051 11085 11117 11150 11180 11208 11232
1170.5795 11250 11264 11272 11272 11263 11246 11221 11193 11163 11132 11101
1175.8827 11066 11026 10979 10924 10863 10796 10725 10649 10568 10484 10401
1181.1860 10325 10262 10219 10199 10198 10211 10225 10225 10198 10132 10022
1186.4893 9871 9693 9510 9353 9251 9226 9285 9420 9607 9818 10025 10207 10355
1192.7568 10467 10550 10612 10661 10706 10751 10799 10846 10890 10926 10952
1198.0601 10969 10980 10991 11006 11024 11044 11061 11072 11075 11072 11067
1203.3634 11063 11063 11064 11064 11061 11054 11045 11038 11034 11031 11027
1208.6666 11020 11009 10995 10981 10970 10964 10965 10970 10980 10994 11013
1213.9700 11038 11069 11107 11148 11192 11236 11279 11322 11365 11405 11440
1219.2732 11470 11491 11504 11510 11509 11499 11480 11450 11409 11360 11307
1224.5765 11254 11204 11159 11120 11087 11061 11043 11030 11023 11018 11013
1229.8798 11008 11001 10994 10988 10984 10979 10974 10968 10962 10956 10951
1235.1831 10948 10945 10942 10938 10933 10929 10925 10920 10914 10906 10896
1240.4863 10887 10880 10876 10876 10880 10886 10891 10895 10896 10893 10887
1245.7897 10877 10862 10842 10816 10786 10753 10718 10682 10646 10612 10580
1251.0929 10551 10526 10503 10483 10461 10435 10405 10370 10331 10288 10239
1256.3962 10182 10114 10032 9935 9823 9698 9563 9420 9271 9119 8967 8817 8671
1262.6637 8530 8391 8255 8126 8012 7923 7867 7851 7877 7948 8054 8177 8304
1268.9313 8433 8575 8742 8944 9184 9454 9736 10007 10251 10465 10650 10803
1274.7167 10922 11004 11053 11079 11087 11082 11063 11033 10993 10947 10896
1280.0199 10843 10786 10726 10664 10601 10538 10477 10417 10355 10289 10217
1285.3232 10139 10055 9964 9868 9767 9662 9556 9452 9351 9256 9166 9080 8995
1291.5907 8909 8821 8728 8632 8531 8426 8315 8198 8078 7956 7835 7721 7614
1297.8583 7517 7429 7349 7277 7216 7168 7139 7131 7148 7191 7262 7360 7487
1304.1257 7638 7808 7986 8163 8327 8475 8604 8717 8818 8908 8989 9059 9117
1310.3933 9159 9182 9182 9160 9114 9049 8967 8872 8767 8652 8530 8404 8279
1316.6608 8162 8059 7971 7902 7849 7814 7796 7793 7803 7823 7847 7876 7908
1322.9283 7944 7986 8037 8099 8173 8257 8351 8450 8548 8642 8729 8808 8879
1329.1958 8946 9012 9080 9153 9234 9325 9429 9546 9672 9802 9928 10046 10151
1335.4634 10241 10315 10372 10412 10438 10454 10463 10468 10473 10480 10491
1340.7666 10506 10524 10546 10570 10595 10619 10641 10659 10673 10682 10689
1346.0699 10692 10692 10688 10680 10666 10647 10622 10592 10557 10518 10474
1351.3732 10427 10378 10328 10275 10218 10155 10086 10013 9941 9872 9809 9751
1357.1586 9699 9651 9612 9583 9565 9560 9565 9579 9598 9623 9653 9691 9737
1363.4261 9791 9848 9907 9967 10027 10083 10134 10177 10212 10240 10263 10283
1369.2115 10301 10316 10329 10341 10351 10358 10364 10365 10361 10351 10336
1374.5148 10320 10306 10293 10282 10269 10254 10236 10214 10192 10171 10153
1379.8181 10138 10127 10116 10107 10097 10087 10077 10067 10057 10047 10037
1385.1213 10027 10016 10005 9992 9977 9963 9949 9936 9921 9905 9886 9864 9842
1391.3889 9822 9805 9789 9774 9756 9734 9708 9679 9653 9631 9613 9596 9578
1397.6564 9557 9531 9500 9467 9435 9407 9379 9350 9317 9279 9239 9197 9153
1403.9240 9103 9047 8983 8916 8848 8779 8705 8622 8527 8422 8310 8199 8093
1410.1914 7998 7917 7858 7826 7826 7859 7919 7998 8086 8173 8247 8301 8327
1416.4590 8326 8301 8255 8182 8064 7886 7675 7490 7364 7291 7257 7259 7311
1422.7264 7436 7653 7948 8267 8553 8784 8969 9126 9266 9390 9496 9580 9641
1428.9940 9683 9707 9715 9709 9694 9672 9644 9610 9569 9522 9474 9426 9379
1435.2615 9327 9260 9174 9082 9007 8957 8923 8894 8866 8841 8823 8814 8816
1441.5291 8828 8845 8863 8881 8894 8902 8905 8903 8899 8892 8884 8875 8867
1447.7965 8859 8854 8847 8837 8821 8799 8773 8746 8726 8721 8734 8761 8799
1454.0641 8844 8892 8942 8993 9047 9099 9135 9131 9077 8989 8885 8777 8667
1460.3315 8553 8432 8304 8172 8044 7920 7795 7650 7467 7249 7035 6864 6740
1466.5991 6649 6576 6521 6490 6493 6532 6600 6692 6801 6932 7098 7308 7535
1472.8666 7712 7806 7834 7825 7785 7710 7597 7461 7331 7236 7180 7154 7151
1479.1342 7169 7210 7280 7381 7508 7652 7803 7957 8116 8280 8448 8615 8775
1485.4016 8930 9086 9250 9423 9588 9728 9837 9922 9999 10080 10163 10235 10287
1491.6692 10322 10347 10365 10377 10383 10383 10373 10349 10309 10257 10204
1496.9724 10162 10127 10090 10042 9985 9925 9868 9812 9751 9678 9596 9513 9443
1503.2400 9392 9360 9343 9337 9349 9400 9515 9672 9795 9879 9965 10071 10193
1509.5074 10319 10437 10546 10645 10739 10828 10909 10978 11032 11075 11108
1514.8108 11135 11154 11162 11157 11144 11138 11147 11167 11190 11214 11234
1520.1140 11245 11237 11205 11168 11153 11161 11180 11202 11221 11233 11236
1525.4174 11230 11219 11209 11201 11196 11193 11193 11197 11206 11220 11235
1530.7206 11250 11262 11270 11273 11268 11260 11254 11255 11264 11278 11294
1536.0239 11311 11329 11348 11367 11384 11393 11386 11358 11332 11326 11333
1541.3271 11343 11347 11346 11341 11335 11327 11318 11310 11303 11302 11306
1546.6305 11312 11318 11323 11323 11318 11303 11280 11250 11223 11204 11193
1551.9337 11187 11181 11170 11144 11099 11045 10999 10971 10958 10952 10948
1557.2371 10939 10914 10851 10721 10588 10514 10470 10433 10397 10361 10322
1562.5403 10278 10227 10166 10094 10012 9927 9846 9771 9704 9641 9581 9517
1568.3257 9444 9359 9273 9210 9182 9178 9185 9196 9209 9220 9228 9232 9232
1574.5933 9234 9252 9308 9413 9531 9618 9669 9700 9722 9739 9751 9753 9745
1580.8607 9728 9702 9669 9632 9590 9545 9498 9448 9395 9339 9277 9210 9137
1587.1283 9058 8976 8890 8801 8708 8610 8506 8397 8286 8176 8069 7967 7872
1593.3958 7783 7702 7635 7584 7554 7547 7566 7611 7685 7788 7917 8072 8249
1599.6633 8444 8654 8871 9087 9297 9496 9680 9847 9994 10121 10227 10317 10395
1605.9308 10463 10521 10570 10608 10637 10661 10682 10704 10726 10747 10765
1611.2341 10777 10782 10780 10773 10762 10752 10744 10737 10729 10713 10678
1616.5374 10625 10570 10531 10504 10480 10450 10411 10362 10310 10257 10205
1621.8407 10148 10076 9979 9863 9754 9673 9619 9581 9550 9521 9497 9481 9481
1628.1082 9502 9541 9594 9656 9728 9813 9915 10030 10152 10272 10384 10490
1633.8936 10597 10721 10874 11047 11193 11289 11357 11416 11474 11532 11584
1639.1969 11629 11667 11698 11723 11740 11752 11760 11769 11779 11794 11811
1644.5001 11829 11845 11853 11846 11823 11798 11789 11802 11831 11867 11907
1649.8035 11947 11989 12037 12092 12157 12220 12216 12079 11955 11930 11951
1655.1067 11984 12016 12045 12070 12092 12110 12128 12146 12165 12183 12201
1660.4100 12217 12229 12232 12220 12191 12152 12120 12102 12093 12089 12081
1665.7133 12070 12055 12040 12024 12001 11961 11894 11805 11719 11652 11600
1671.0166 11551 11502 11456 11418 11389 11366 11340 11301 11244 11180 11132
1676.3198 11106 11091 11078 11062 11043 11022 10999 10976 10957 10941 10927
1681.6232 10915 10901 10884 10861 10829 10801 10800 10815 10828 10835 10838
1686.9264 10838 10836 10833 10830 10829 10831 10835 10840 10845 10850 10854
1692.2297 10858 10861 10864 10867 10870 10874 10880 10890 10902 10913 10921
1697.5330 10927 10932 10934 10933 10931 10936 10960 10992 11015 11031 11042
1702.8363 11049 11055 11061 11068 11079 11094 11110 11125 11136 11142 11148
1708.1395 11154 11162 11173 11186 11201 11216 11231 11247 11262 11277 11291
1713.4429 11302 11308 11310 11307 11303 11301 11303 11307 11312 11308 11295
1718.7461 11276 11258 11240 11223 11205 11187 11169 11153 11141 11130 11121
1724.0494 11110 11098 11084 11068 11049 11027 11002 10975 10947 10919 10890
1729.3527 10862 10836 10815 10800 10789 10780 10772 10763 10746 10720 10691
1734.6560 10670 10659 10650 10640 10627 10610 10590 10566 10539 10508 10473
1739.9592 10440 10415 10396 10381 10368 10353 10336 10320 10304 10290 10276
1745.2626 10263 10250 10238 10227 10214 10199 10183 10166 10152 10142 10134
1750.5658 10128 10124 10120 10117 10115 10114 10112 10110 10109 10107 10105
1755.8691 10101 10096 10090 10086 10083 10081 10079 10076 10070 10062 10054
1761.1724 10046 10044 10047 10053 10058 10061 10062 10061 10060 10058 10056
1766.4757 10053 10048 10042 10035 10030 10028 10028 10029 10031 10034 10038
1771.7789 10041 10041 10039 10036 10033 10031 10030 10030 10030 10029 10028
1777.0823 10026 10025 10024 10025 10026 10027 10027 10026 10024 10024 10025
1782.3855 10027 10032 10036 10041 10045 10047 10047 10044 10041 10038 10035
1787.6888 10032 10028 10023 10018 10013 10010 10010 10013 10019 10024 10027
1792.9922 10027 10025 10024 10024 10025 10027 10029 10029 10028 10025 10022
1798.2954 10018 10015 10013 10012 10012 10012 10012 10013 10014 10017 10019
1803.5988 10021 10022 10023 10025 10027 10028 10028 10025 10020 10015 10012
1808.9020 10011 10013 10017 10022 10028 10032 10034 10033 10030 10027 10024
1814.2053 10023 10026 10030 10036 10041 10044 10044 10041 10038 10037 10037
1819.5085 10038 10040 10040 10039 10036 10031 10026 10021 10017 10015 10016
1824.8119 10017 10018 10018 10016 10011 10005 9999 9995 9994 9998 10010 10025
1830.5973 10039 10049 10055 10058 10059 10058 10056 10055 10055 10054 10051
1835.9005 10047 10042 10037 10033 10032 10031 10032 10031 10031 10031 10031
1841.2039 10033 10036 10040 10047 10059 10076 10092 10102 10104 10103 10102
1846.5071 10104 10108 10114 10117 10117 10114 10109 10104 10099 10095 10091
1851.8104 10088 10085 10083 10081 10079 10079 10082 10089 10100 10112 10123
1857.1136 10131 10136 10140 10142 10143 10143 10142 10142 10146 10156 10169
1862.4170 10182 10187 10182 10166 10144 10122 10104 10093 10088 10087 10087
1867.7202 10088 10087 10087 10089 10095 10106 10120 10137 10155 10170 10183
1873.0236 10191 10192 10188 10179 10167 10155 10143 10132 10120 10107 10092
1878.3268 10077 10067 10062 10063 10069 10077 10087 10096 10103 10108 10107
1883.6301 10102 10095 10089 10088 10093 10102 10111 10117 10118 10115 10109
1888.9333 10101 10093 10087 10084 10082 10080 10074 10066 10056 10047 10042
1894.2367 10042 10046 10049 10052 10052 10053 10055 10059 10065 10072 10080
1899.5399 10088 10094 10098 10096 10087 10072 10054 10039 10029 10024 10023
1904.8433 10024 10023 10021 10017 10013 10009 10005 10002 9998 9996 9996 10000
1910.6287 10009 10023 10040 10055 10067 10073 10073 10071 10070 10071 10074
1915.9319 10078 10080 10079 10075 10069 10060 10048 10036 10024 10015 10010
1921.2352 10010 10013 10016 10018 10020 10026 10037 10051 10065 10076 10084
1926.5385 10090 10096 10100 10100 10091 10074 10052 10033 10025 10030 10049
1931.8418 10075 10103 10128 10149 10166 10180 10194 10206 10213 10213 10203
1937.1450 10179 10143 10099 10052 10014 9991 9988 10004 10035 10073 10108
1942.4484 10130 10135 10127 10116 10111 10117 10132 10149 10159 10151 10124
1947.7516 10087 10053 10036 10039 10059 10084 10101 10105 10100 10096 10101
1953.0549 10114 10130 10141 10143 10139 10134 10134 10138 10141 10138 10128
1958.3582 10113 10099 10088 10079 10072 10067 10069 10081 10100 10115 10119
1963.6615 10107 10085 10068 10068 10090 10128 10167 10190 10192 10174 10144
1968.9647 10107 10063 10009 9948 9892 9859 9865 9917 10004 10101 10179 10211
1974.7501 10191 10131 10064 10019 10014 10048 10099 10142 10160 10152 10135
1980.0535 10126 10133 10154 10177 10189 10183 10158 10125 10092 10071 10064
1985.3567 10069 10078 10084 10084 10078 10074 10077 10092 10120 10156 10197
1990.6600 10234 10257 10254 10219 10158 10089 10034 10010 10026 10079 10153
1995.9633 10221 10262 10263 10230 10178 10126 10085 10058 10038 10022 10007
2001.2666 9998 9996 10003 10015 10026 10034 10037 10039 10041 10044 10051
2006.5698 10063 10085 10119 10158 10191 10202 10184 10137 10074 10011 9964
2011.8732 9937 9933 9945 9969 10000 10034 10062 10080 10084 10079 10076 10085
2017.6586 10106 10130 10141 10133 10111 10088 10076 10077 10084 10088 10087
2022.9618 10086 10096 10118 10144 10162 10159 10138 10115 10105 10117 10143
2028.2651 10168 10179 10172 10156 10139 10125 10108 10080 10037 9988 9948 9932
2034.0505 9947 9989 10044 10102 10153 10192 10216 10222 10209 10180 10139
2039.3538 10093 10048 10007 9976 9958 9959 9979 10014 10057 10097 10125 10136
2045.1392 10131 10116 10099 10086 10081 10080 10080 10078 10071 10059 10046
2050.4424 10034 10025 10019 10015 10012 10005 9993 9978 9966 9963 9974 9995
2056.2278 10021 10044 10058 10062 10057 10043 10020 9989 9958 9935 9928 9939
2062.0132 9961 9983 9996 9994 9983 9969 9963 9969 9984 10003 10019 10025 10019
2068.2808 10005 9990 9981 9986 10005 10032 10058 10077 10083 10077 10061 10038
2074.0662 10009 9979 9955 9946 9954 9979 10009 10034 10043 10038 10025 10014
2079.8516 10010 10011 10013 10014 10013 10014 10017 10020 10021 10019 10018
2085.1548 10023 10037 10057 10073 10077 10065 10040 10012 9987 9970 9960 9953
2090.9402 9947 9941 9938 9941 9950 9963 9977 9987 9992 9993 9993 9994 9998
2097.2078 10004 10009 10009 10004 9995 9984 9975 9971 9972 9978 9988 10000
2102.9932 10011 10018 10016 10007 9995 9986 9984 9990 10000 10008 10013 10014
2108.7786 10014 10014 10014 10012 10008 10001 9996 9994 9996 10003 10011 10018
2114.5640 10023 10024 10024 10023 10025 10031 10039 10045 10044 10034 10017
2119.8672 10000 9993 10000 10017 10036 10048 10047 10037 10025 10020 10027
2125.1707 10044 10062 10074 10074 10061 10038 10010 9983 9961 9950 9948 9955
2130.9561 9966 9979 9992 10007 10027 10052 10076 10092 10096 10088 10076 10067
2136.7415 10065 10068 10072 10072 10071 10074 10087 10113 10145 10172 10185
2142.0447 10180 10162 10140 10126 10126 10137 10152 10161 10159 10149 10143
2147.3479 10149 10167 10189 10205 10208 10204 10200 10202 10203 10191 10157
2152.6511 10109 10067 10058 10096 10176 10276 10361 10407 10408 10380 10350
2157.9546 10340 10360 10399 10432 10432 10389 10312 10224 10153 10120 10132
2163.2578 10181 10245 10301 10328 10323 10293 10253 10213 10180 10155 10136
2168.5610 10127 10129 10146 10174 10212 10251 10286 10310 10318 10307 10279
2173.8643 10241 10205 10180 10168 10165 10162 10151 10136 10125 10125 10139
2179.1677 10165 10193 10216 10229 10232 10226 10217 10207 10198 10189 10174
2184.4709 10152 10124 10098 10087 10099 10135 10185 10227 10242 10222 10172
2189.7742 10109 10052 10018 10010 10024 10044 10054 10047 10024 10000 9989
2195.0774 10003 10040 10087 10127 10144 10135 10108 10079 10060 10056 10064
2200.3809 10075 10080 10077 10066 10054 10049 10056 10077 10108 10141 10164
2205.6841 10168 10153 10123 10089 10063 10048 10044 10045 10044 10039 10030
2210.9873 10020 10010 10001 9994 9989 9989 9996 10014 10041 10073 10106 10131
2216.7727 10144 10143 10131 10111 10090 10066 10041 10015 9990 9976 9978 10000
2222.5581 10037 10079 10116 10139 10146 10141 10130 10118 10110 10107 10107
2227.8613 10105 10097 10079 10050 10017 9991 9979 9988 10014 10051 10090 10122
2233.6467 10142 10147 10136 10111 10080 10050 10029 10022 10028 10041 10055
2238.9502 10065 10072 10078 10084 10091 10094 10092 10086 10078 10073 10073
2244.2534 10079 10089 10099 10106 10109 10109 10105 10100 10095 10092 10089
2249.5566 10085 10078 10066 10047 10024 10001 9984 9978 9984 10002 10025 10049
2255.3420 10066 10074 10074 10069 10063 10058 10053 10048 10042 10036 10032
2260.6453 10031 10030 10026 10020 10012 10009 10015 10028 10044 10056 10060
2265.9487 10055 10047 10041 10039 10041 10045 10049 10053 10055 10055 10052
2271.2520 10046 10040 10037 10040 10050 10060 10065 10061 10048 10029 10012
2276.5552 10000 9995 9997 10002 10005 10006 10002 9997 9993 9992 9997 10004
2282.3406 10012 10017 10018 10016 10013 10012 10015 10020 10025 10029 10030
2287.6438 10026 10018 10008 9998 9990 9986 9983 9983 9982 9980 9979 9980 9982
2293.9114 9986 9990 9993 9995 9997 9999 10004 10008 10012 10012 10008 10001
2299.6968 9994 9987 9983 9983 9986 9990 9994 9997 9996 9992 9986 9978 9970
2305.9644 9962 9954 9947 9943 9943 9948 9954 9961 9963 9959 9951 9942 9936
2312.2319 9935 9938 9943 9948 9950 9947 9940 9929 9914 9897 9881 9868 9862
2318.4993 9861 9865 9871 9877 9880 9882 9881 9878 9873 9865 9854 9840 9825
2324.7668 9807 9791 9776 9768 9767 9773 9785 9796 9800 9794 9780 9766 9756
2331.0344 9753 9752 9748 9736 9718 9699 9686 9682 9686 9694 9706 9719 9734
2337.3020 9749 9761 9768 9769 9765 9760 9757 9757 9757 9754 9749 9743 9740
2343.5693 9742 9751 9760 9767 9771 9775 9783 9796 9813 9829 9842 9850 9850
2349.8369 9842 9826 9805 9781 9758 9739 9726 9717 9712 9706 9697 9685 9670
2356.1045 9657 9647 9640 9631 9620 9605 9590 9577 9566 9553 9538 9527 9525
2362.3721 9537 9561 9587 9609 9624 9634 9647 9667 9695 9726 9754 9776 9790
2368.6394 9795 9793 9786 9776 9767 9761 9761 9768 9781 9799 9818 9835 9850
2374.9070 9861 9869 9877 9884 9892 9899 9904 9910 9916 9924 9934 9946 9957
2381.1746 9965 9969 9969 9967 9965 9965 9966 9969 9972 9977 9982 9987 9992
2387.4421 9996 9998 9997 9993 9988 9983 9980 9982 9987 9995 10002 10004 10001
2393.7095 9994 9985 9977 9972 9971 9972 9972 9972 9972 9974 9978 9984 9990
2399.9771 9994 9993 9989 9983 9976 9970 9965 9962 9960 9962 9965 9969 9972
2406.2446 9973 9972 9972 9974 9977 9982 9987 9988 9987 9984 9981 9979 9978
2412.5122 9978 9976 9974 9971 9969 9967 9965 9964 9963 9964 9967 9972 9976
2418.7795 9977 9974 9968 9962 9959 9959 9964 9970 9976 9979 9982 9984 9987
2425.0471 9989 9991 9991 9989 9984 9978 9972 9968 9967 9970 9975 9981 9984
2431.3147 9985 9983 9981 9980 9983 9989 9994 9999 10002 10003 10003 10003
2437.1001 10004 10007 10011 10015 10018 10018 10016 10012 10008 10003 9997
2442.4033 9992 9986 9981 9977 9975 9973 9972 9972 9972 9973 9975 9977 9979
2448.6709 9980 9981 9983 9986 9991 9996 10000 10002 10002 10002 10002 10004
2454.4563 10007 10010 10013 10013 10011 10008 10004 10000 9998 9997 9998 10000
2460.2417 10003 10006 10009 10012 10013 10011 10006 9999 9989 9981 9975 9972
2466.0271 9973 9978 9985 9993 10000 10006 10009 10008 10005 9998 9991 9983
2471.8125 9977 9973 9972 9975 9979 9985 9990 9992 9991 9987 9981 9977 9975
2478.0801 9976 9978 9979 9975 9968 9959 9950 9945 9944 9946 9950 9954 9958
2484.3474 9961 9965 9967 9968 9968 9968 9968 9968 9968 9968 9966 9961 9956
2490.6150 9952 9950 9950 9951 9951 9951 9951 9952 9955 9958 9961 9961 9959
2496.8826 9954 9949 9945 9942 9940 9938 9935 9932 9932 9934 9941 9948 9954
2503.1501 9955 9951 9943 9934 9927 9925 9926 9928 9928 9926 9921 9917 9915
2509.4175 9916 9919 9923 9926 9927 9928 9931 9935 9939 9942 9942 9939 9932
2515.6851 9926 9922 9923 9929 9937 9944 9950 9951 9949 9944 9938 9933 9931
2521.9526 9930 9931 9932 9932 9931 9930 9929 9929 9932 9934 9937 9938 9938
2528.2202 9937 9937 9936 9936 9936 9938 9941 9945 9949 9951 9949 9943 9934
2534.4875 9926 9921 9922 9928 9937 9946 9953 9957 9958 9957 9955 9952 9949
2540.7551 9947 9948 9952 9959 9967 9976 9985 9992 9997 10000 10000 10000 9999
2547.0227 9999 9999 9999 9996 9988 9974 9955 9934 9916 9903 9897 9897 9900
2553.2903 9900 9898 9891 9883 9876 9870 9867 9866 9867 9871 9876 9883 9888
2559.5576 9888 9884 9877 9868 9862 9861 9862 9866 9867 9866 9864 9862 9861
2565.8252 9862 9862 9861 9858 9853 9848 9844 9840 9837 9834 9831 9829 9828
2572.0928 9828 9829 9833 9838 9845 9851 9854 9852 9847 9840 9833 9828 9825
2578.3604 9824 9823 9822 9823 9824 9826 9828 9828 9827 9824 9823 9823 9825
2584.6277 9828 9828 9827 9824 9820 9818 9818 9819 9820 9820 9819 9816 9811
2590.8953 9806 9802 9799 9800 9802 9805 9809 9812 9815 9817 9817 9815 9813
2597.1628 9810 9808 9807 9806 9805 9802 9798 9794 9792 9795 9801 9809 9815
2603.4304 9819 9817 9811 9802 9794 9790 9790 9794 9799 9805 9808 9810 9810
2609.6978 9808 9806 9803 9799 9794 9789 9784 9779 9776 9775 9777 9780 9782
2615.9653 9783 9782 9779 9775 9772 9770 9768 9765 9761 9756 9753 9752 9755
2622.2329 9760 9766 9771 9772 9770 9765 9759 9752 9748 9745 9746 9749 9754
2628.5005 9760 9765 9768 9771 9772 9771 9768 9765 9762 9760 9760 9762 9766
2634.7678 9771 9775 9777 9777 9773 9767 9761 9755 9751 9750 9750 9751 9752
2641.0354 9753 9753 9753 9753 9754 9754 9755 9755 9755 9754 9754 9755 9757
2647.3030 9759 9761 9761 9760 9757 9754 9753 9753 9755 9758 9762 9765 9767
2653.5706 9767 9765 9763 9762 9763 9765 9770 9774 9777 9778 9775 9771 9767
2659.8379 9764 9764 9765 9767 9768 9767 9764 9761 9758 9756 9755 9755 9756
2666.1055 9756 9755 9754 9752 9749 9747 9745 9742 9739 9737 9736 9735 9734
2672.3730 9734 9732 9731 9729 9727 9726 9725 9723 9721 9718 9716 9716 9715
2678.6406 9715 9713 9710 9706 9701 9698 9697 9698 9702 9706 9709 9711 9711
2684.9080 9709 9707 9705 9703 9701 9700 9700 9699 9699 9699 9699 9700 9701
2691.1755 9702 9702 9703 9703 9703 9703 9703 9702 9700 9697 9695 9693 9691
2697.4431 9690 9690 9691 9691 9691 9690 9688 9686 9685 9684 9683 9682 9680
2703.7107 9677 9673 9670 9669 9670 9672 9675 9676 9675 9672 9668 9664 9661
2709.9780 9659 9658 9656 9655 9652 9649 9645 9640 9634 9629 9625 9622 9620
2716.2456 9619 9617 9615 9613 9610 9609 9608 9607 9607 9605 9603 9600 9596
2722.5132 9593 9591 9590 9589 9587 9585 9581 9577 9573 9570 9570 9570 9572
2728.7808 9575 9578 9580 9581 9582 9582 9582 9582 9581 9581 9579 9577 9573
2735.0481 9568 9564 9561 9560 9560 9561 9559 9555 9549 9543 9538 9536 9537
2741.3157 9539 9541 9542 9541 9538 9536 9535 9535 9537 9539 9540 9540 9539
2747.5833 9538 9537 9539 9544 9550 9558 9567 9575 9581 9585 9588 9589 9589
2753.8508 9591 9594 9601 9609 9619 9629 9638 9647 9654 9661 9667 9673 9679
2760.1182 9686 9694 9702 9712 9721 9728 9734 9739 9743 9748 9753 9757 9760
2766.3857 9761 9761 9762 9763 9765 9767 9768 9768 9766 9764 9762 9759 9755
2772.6533 9751 9745 9738 9732 9727 9725 9724 9724 9723 9720 9716 9710 9705
2778.9209 9700 9696 9694 9691 9690 9688 9688 9687 9687 9686 9685 9683 9680
2785.1885 9676 9672 9669 9667 9667 9667 9668 9668 9668 9667 9668 9669 9671
2791.4558 9673 9674 9676 9678 9680 9683 9687 9691 9696 9702 9709 9717 9727
2797.7234 9736 9743 9748 9750 9752 9753 9756 9760 9766 9773 9780 9787 9795
2803.9910 9802 9809 9815 9819 9821 9820 9818 9816 9815 9817 9820 9824 9828
2810.2585 9831 9833 9834 9834 9834 9834 9834 9835 9835 9835 9834 9833 9833
2816.5259 9834 9837 9841 9847 9853 9858 9863 9867 9872 9877 9884 9891 9897
2822.7935 9902 9903 9902 9898 9896 9895 9896 9900 9904 9908 9910 9909 9908
2829.0610 9905 9903 9902 9902 9903 9904 9905 9906 9908 9912 9916 9922 9927
2835.3286 9931 9934 9936 9938 9939 9940 9942 9945 9949 9953 9955 9955 9953
2841.5959 9951 9951 9954 9961 9970 9978 9983 9985 9984 9980 9977 9975 9974
2847.8635 9975 9976 9977 9977 9977 9978 9979 9981 9983 9985 9987 9988 9989
2854.1311 9990 9991 9990 9988 9984 9981 9980 9982 9987 9993 9998 10001 10002
2860.3987 10003 10003 10003 10005 10007 10009 10011 10012 10014 10016 10021
2865.7019 10029 10038 10049 10058 10065 10070 10073 10075 10077 10079 10081
2871.0051 10082 10083 10083 10083 10082 10081 10077 10072 10065 10057 10048
2876.3083 10041 10035 10033 10032 10031 10029 10025 10020 10014 10009 10005
2881.6118 10001 9998 9994 9991 9988 9986 9986 9987 9989 9990 9989 9986 9978
2887.8792 9968 9957 9947 9939 9934 9932 9932 9932 9931 9930 9927 9924 9921
2894.1467 9920 9921 9922 9924 9926 9927 9928 9931 9936 9943 9950 9956 9961
2900.4143 9967 9973 9982 9994 10007 10019 10028 10036 10042 10050 10060 10072
2906.1997 10085 10097 10107 10115 10121 10128 10137 10149 10163 10180 10199
2911.5029 10216 10232 10244 10251 10255 10258 10261 10266 10272 10277 10281
2916.8062 10284 10284 10284 10285 10287 10291 10298 10308 10322 10338 10356
2922.1096 10373 10386 10394 10397 10398 10399 10403 10410 10422 10438 10455
2927.4128 10472 10487 10499 10509 10516 10523 10529 10536 10543 10550 10557
2932.7161 10563 10567 10570 10571 10572 10571 10571 10571 10570 10567 10561
2938.0193 10554 10545 10536 10528 10522 10519 10516 10513 10509 10504 10496
2943.3228 10487 10475 10463 10450 10439 10429 10423 10419 10420 10424 10432
2948.6260 10443 10458 10475 10494 10512 10526 10535 10539 10539 10539 10542
2953.9292 10548 10557 10567 10575 10580 10584 10586 10589 10592 10594 10593
2959.2324 10588 10580 10571 10562 10555 10550 10544 10538 10531 10523 10517
2964.5359 10514 10514 10516 10520 10523 10525 10527 10526 10524 10518 10510
2969.8391 10499 10488 10478 10469 10460 10451 10440 10429 10418 10410 10403
2975.1423 10398 10394 10389 10383 10374 10363 10351 10338 10325 10311 10296
2980.4456 10282 10271 10264 10261 10260 10261 10260 10258 10256 10255 10258
2985.7490 10264 10273 10283 10294 10305 10316 10327 10338 10348 10357 10364
2991.0522 10370 10376 10382 10389 10395 10400 10400 10396 10386 10373 10357
2996.3555 10342 10328 10316 10308 10303 10301 10301 10303 10305 10308 10311
3001.6587 10312 10311 10306 10297 10285 10271 10257 10245 10234 10223 10213
3006.9622 10203 10192 10180 10167 10152 10136 10121 10110 10102 10097 10094
3012.2654 10090 10084 10075 10065 10055 10046 10038 10030 10024 10020 10019
3017.5686 10020 10024 10030 10036 10041 10043 10044 10046 10050 10056 10063
3022.8718 10070 10074 10074 10072 10069 10065 10064 10065 10068 10074 10081
3028.1753 10088 10092 10092 10087 10079 10070 10062 10055 10050 10047 10044
3033.4785 10042 10040 10038 10035 10031 10026 10020 10011 10002 9991 9981 9971
3039.2639 9963 9954 9945 9935 9923 9910 9898 9887 9879 9872 9867 9860 9851
3045.5315 9840 9828 9817 9809 9806 9808 9816 9828 9844 9864 9885 9909 9934
3051.7988 9959 9983 10005 10023 10037 10047 10054 10060 10065 10070 10074
3057.1023 10077 10079 10080 10082 10085 10089 10095 10101 10105 10107 10107
3062.4055 10105 10101 10097 10093 10089 10085 10082 10080 10079 10078 10075
3067.7087 10068 10058 10046 10033 10022 10013 10006 10001 9994 9986 9976 9969
3073.4941 9964 9963 9965 9970 9978 9986 9997 10011 10028 10046 10064 10078
3079.2795 10089 10097 10103 10110 10118 10127 10135 10140 10142 10142 10142
3084.5828 10142 10142 10142 10143 10143 10143 10144 10144 10142 10138 10133
3089.8862 10127 10123 10122 10126 10133 10142 10151 10159 10164 10167 10169
3095.1895 10169 10169 10169 10168 10167 10167 10167 10170 10176 10186 10197
3100.4927 10206 10211 10212 10208 10204 10202 10203 10205 10207 10205 10199
3105.7959 10190 10182 10175 10171 10169 10168 10163 10155 10143 10130 10118
3111.0994 10109 10105 10103 10102 10099 10093 10083 10071 10059 10048 10039
3116.4026 10029 10019 10006 9992 9977 9963 9951 9941 9931 9921 9910 9898 9885
3122.6702 9873 9864 9858 9855 9854 9853 9848 9841 9832 9824 9817 9813 9811
3128.9375 9808 9801 9791 9776 9759 9742 9727 9717 9709 9703 9696 9686 9675
3135.2051 9661 9646 9630 9616 9603 9591 9580 9569 9560 9551 9543 9536 9528
3141.4727 9519 9508 9496 9483 9472 9463 9454 9446 9438 9429 9420 9410 9398
3147.7402 9385 9371 9358 9345 9334 9325 9316 9307 9300 9294 9289 9286 9282
3154.0076 9276 9270 9262 9254 9249 9246 9246 9248 9251 9256 9262 9268 9275
3160.2751 9283 9291 9300 9310 9323 9337 9353 9370 9388 9404 9419 9434 9449
3166.5427 9464 9478 9492 9504 9516 9529 9544 9565 9591 9620 9651 9679 9702
3172.8103 9721 9735 9747 9758 9771 9786 9803 9824 9845 9864 9882 9897 9910
3179.0776 9923 9937 9953 9968 9984 10000 10016 10032 10048 10064 10079 10094
3184.8630 10110 10125 10139 10152 10162 10170 10174 10175 10174 10172 10172
3190.1665 10175 10181 10189 10198 10207 10216 10225 10234 10244 10254 10262
3195.4697 10270 10276 10280 10283 10286 10290 10296 10302 10310 10318 10325
3200.7729 10330 10333 10334 10334 10333 10331 10330 10330 10334 10340 10347
3206.0762 10353 10357 10358 10356 10352 10348 10344 10342 10343 10346 10350
3211.3796 10354 10358 10360 10361 10359 10353 10344 10332 10322 10315 10313
3216.6829 10315 10318 10320 10320 10318 10315 10312 10309 10306 10303 10302
3221.9861 10301 10302 10303 10304 10305 10306 10307 10309 10311 10312 10313
3227.2893 10312 10311 10308 10305 10300 10294 10290 10289 10292 10297 10302
3232.5928 10306 10309 10312 10314 10317 10319 10318 10315 10308 10300 10291
3237.8960 10284 10279 10275 10272 10268 10265 10263 10263 10265 10267 10269
3243.1992 10269 10267 10262 10254 10245 10236 10227 10220 10215 10212 10211
3248.5024 10210 10209 10208 10207 10207 10209 10211 10214 10216 10218 10221
3253.8059 10227 10237 10251 10266 10278 10284 10286 10287 10290 10296 10305
3259.1091 10314 10320 10322 10325 10329 10338 10351 10364 10375 10381 10382
3264.4124 10378 10373 10367 10364 10363 10365 10369 10376 10384 10392 10398
3269.7156 10401 10402 10402 10401 10400 10400 10401 10403 10406 10410 10414
3275.0190 10416 10415 10410 10402 10396 10392 10392 10396 10402 10407 10411
3280.3223 10413 10413 10411 10406 10399 10393 10390 10392 10398 10406 10412
3285.6255 10412 10408 10401 10393 10387 10383 10381 10379 10378 10379 10382
3290.9287 10386 10391 10394 10394 10390 10385 10383 10384 10389 10397 10404
3296.2322 10411 10417 10423 10428 10431 10432 10430 10424 10416 10409 10406
3301.5354 10407 10413 10422 10432 10442 10449 10452 10451 10446 10438 10430
3306.8386 10421 10412 10403 10393 10382 10371 10360 10349 10338 10328 10317
3312.1418 10306 10296 10286 10277 10271 10269 10268 10268 10266 10260 10252
3317.4453 10243 10237 10233 10232 10232 10229 10224 10217 10210 10203 10196
3322.7485 10191 10185 10181 10178 10176 10175 10175 10176 10175 10173 10168
3328.0518 10161 10152 10142 10131 10123 10119 10118 10119 10119 10116 10110
3333.3550 10103 10097 10093 10091 10089 10086 10080 10071 10060 10049 10040
3338.6584 10036 10035 10036 10037 10034 10027 10016 10005 9997 9994 9996 9999
3344.4438 10000 9998 9991 9982 9971 9960 9949 9939 9930 9923 9918 9915 9912
3350.7112 9909 9904 9897 9889 9882 9875 9868 9861 9853 9844 9834 9825 9816
3356.9788 9807 9799 9792 9784 9777 9769 9761 9750 9739 9726 9715 9706 9700
3363.2463 9695 9688 9675 9656 9631 9605 9582 9563 9548 9535 9520 9504 9487
3369.5139 9471 9454 9436 9414 9387 9356 9324 9291 9257 9224 9189 9152 9113
3375.7813 9071 9026 8979 8928 8875 8820 8763 8705 8646 8587 8530 8474 8420
3382.0488 8368 8319 8274 8234 8204 8184 8177 8182 8197 8220 8249 8286 8331
3388.3164 8387 8455 8537 8631 8735 8847 8965 9085 9204 9318 9423 9518 9601
3394.5840 9675 9739 9797 9848 9895 9938 9978 10016 10053 10088 10119 10144
3400.3694 10164 10177 10185 10191 10196 10201 10206 10208 10208 10206 10204
3405.6726 10203 10205 10208 10212 10216 10221 10226 10232 10238 10243 10245
3410.9758 10244 10240 10232 10222 10214 10210 10210 10215 10224 10234 10240
3416.2791 10243 10241 10236 10231 10227 10224 10221 10217 10212 10204 10195
3421.5825 10187 10180 10175 10172 10170 10169 10169 10169 10169 10168 10166
3426.8857 10163 10159 10153 10147 10141 10136 10132 10129 10126 10123 10121
3432.1890 10122 10124 10126 10125 10120 10110 10096 10082 10069 10059 10053
3437.4922 10050 10049 10048 10047 10045 10042 10038 10032 10025 10017 10008
3442.7957 9998 9989 9981 9974 9970 9968 9966 9964 9962 9957 9951 9944 9936
3449.0630 9927 9919 9910 9902 9893 9883 9874 9867 9862 9859 9856 9851 9840
3455.3306 9826 9809 9792 9777 9765 9757 9753 9750 9749 9746 9739 9728 9714
3461.5981 9698 9685 9673 9662 9648 9630 9609 9585 9561 9540 9520 9502 9485
3467.8657 9468 9450 9431 9410 9385 9357 9326 9293 9262 9232 9204 9175 9146
3474.1331 9116 9085 9055 9027 9001 8977 8955 8936 8922 8912 8906 8901 8892
3480.4006 8878 8860 8843 8834 8836 8851 8876 8909 8946 8989 9038 9096 9163
3486.6682 9235 9311 9384 9451 9511 9565 9617 9669 9720 9768 9812 9849 9881
3492.9358 9907 9929 9945 9956 9962 9967 9972 9980 9992 10006 10020 10032 10044
3499.2031 10054 10065 10074 10082 10088 10093 10096 10098 10097 10093 10089
3504.5066 10086 10085 10088 10095 10104 10113 10122 10127 10130 10130 10128
3509.8098 10126 10126 10129 10137 10147 10158 10167 10172 10172 10168 10164
3515.1130 10162 10164 10168 10173 10179 10184 10188 10190 10191 10191 10190
3520.4163 10188 10186 10184 10182 10181 10181 10183 10186 10191 10195 10198
3525.7197 10200 10201 10201 10200 10198 10196 10195 10196 10199 10204 10208
3531.0229 10211 10212 10211 10210 10208 10207 10205 10201 10195 10188 10178
3536.3262 10170 10164 10161 10162 10165 10168 10168 10166 10161 10155 10147
3541.6294 10139 10130 10120 10111 10103 10097 10095 10096 10099 10103 10106
3546.9329 10108 10108 10107 10105 10104 10102 10099 10095 10088 10081 10076
3552.2361 10072 10072 10073 10075 10077 10080 10082 10084 10085 10083 10080
3557.5393 10076 10072 10068 10068 10071 10077 10085 10092 10095 10092 10082
3562.8425 10067 10050 10036 10026 10022 10022 10026 10029 10032 10033 10036
3568.1460 10041 10047 10053 10054 10051 10043 10034 10027 10024 10024 10023
3573.4492 10019 10010 9999 9990 9986 9987 9992 9995 9994 9989 9984 9981 9981
3579.7168 9983 9983 9980 9972 9963 9954 9950 9950 9955 9960 9964 9965 9963
3585.9841 9956 9946 9935 9926 9920 9918 9920 9923 9928 9932 9936 9940 9941
3592.2517 9941 9938 9932 9925 9918 9912 9909 9909 9910 9912 9913 9914 9916
3598.5193 9918 9921 9925 9927 9928 9926 9923 9920 9918 9918 9919 9920 9920
3604.7869 9919 9915 9911 9906 9901 9895 9891 9887 9887 9891 9897 9904 9910
3611.0542 9913 9911 9905 9894 9882 9871 9862 9857 9855 9856 9858 9860 9862
3617.3218 9864 9867 9871 9876 9880 9879 9875 9868 9861 9854 9848 9843 9841
3623.5894 9841 9845 9852 9861 9869 9873 9871 9864 9853 9840 9832 9833 9841
3629.8569 9849 9852 9852 9851 9847 9843 9837 9834 9834 9840 9847 9855 9859
3636.1243 9859 9855 9847 9839 9833 9831 9833 9837 9840 9841 9839 9834 9830
3642.3918 9827 9829 9835 9842 9850 9855 9854 9848 9836 9822 9812 9807 9807
3648.6594 9806 9800 9790 9781 9780 9786 9796 9804 9811 9816 9821 9825 9829
3654.9270 9831 9829 9820 9808 9799 9795 9796 9799 9803 9806 9808 9808 9807
3661.1943 9807 9807 9805 9803 9801 9801 9805 9812 9821 9827 9827 9820 9809
3667.4619 9796 9784 9775 9770 9767 9768 9773 9780 9789 9796 9802 9805 9809
3673.7295 9815 9824 9838 9846 9841 9830 9821 9815 9811 9809 9806 9801 9795
3679.9971 9787 9780 9775 9771 9769 9768 9767 9766 9765 9764 9766 9771 9780
3686.2644 9789 9796 9795 9784 9767 9754 9750 9754 9762 9770 9775 9777 9779
3692.5320 9780 9780 9781 9781 9782 9783 9784 9784 9781 9775 9766 9757 9752
3698.7996 9752 9757 9765 9774 9780 9781 9777 9772 9768 9768 9770 9773 9776
3705.0671 9777 9775 9772 9769 9768 9769 9774 9781 9786 9788 9785 9779 9770
3711.3345 9762 9757 9756 9758 9760 9761 9759 9758 9759 9764 9772 9782 9790
3717.6021 9793 9790 9783 9775 9768 9763 9756 9747 9737 9729 9727 9732 9741
3723.8696 9751 9759 9764 9767 9767 9764 9757 9748 9740 9737 9738 9745 9757
3730.1372 9772 9786 9797 9801 9798 9791 9786 9783 9785 9793 9802 9806 9800
3736.4045 9787 9771 9759 9754 9756 9761 9768 9773 9774 9771 9767 9765 9767
3742.6721 9775 9785 9794 9788 9768 9750 9744 9746 9752 9759 9768 9776 9783
3748.9397 9787 9784 9776 9767 9762 9766 9779 9795 9803 9802 9797 9791 9787
3755.2073 9786 9788 9788 9784 9776 9766 9757 9752 9753 9758 9765 9770 9772
3761.4746 9772 9771 9771 9773 9775 9778 9779 9778 9776 9775 9776 9781 9788
3767.7422 9793 9795 9789 9777 9762 9753 9751 9756 9761 9766 9767 9765 9762
3774.0098 9758 9755 9753 9755 9758 9763 9769 9773 9775 9774 9769 9763 9757
3780.2773 9755 9754 9755 9757 9758 9759 9759 9758 9757 9757 9757 9758 9760
3786.5449 9762 9764 9766 9767 9768 9769 9771 9775 9778 9780 9779 9775 9769
3792.8123 9764 9761 9760 9761 9761 9758 9753 9749 9750 9756 9766 9777 9786
3799.0798 9790 9789 9779 9760 9736 9719 9717 9726 9739 9752 9762 9769 9771
3805.3474 9769 9762 9751 9741 9736 9737 9742 9747 9751 9753 9753 9751 9748
3811.6150 9746 9746 9747 9751 9755 9760 9762 9761 9755 9747 9740 9738 9739
3817.8823 9742 9745 9748 9752 9758 9765 9769 9768 9763 9757 9753 9750 9749
3824.1499 9748 9749 9750 9751 9751 9749 9745 9740 9738 9739 9743 9751 9760
3830.4175 9768 9771 9768 9760 9751 9744 9739 9737 9739 9743 9748 9752 9755
3836.6851 9755 9756 9758 9762 9767 9770 9771 9769 9765 9762 9760 9761 9763
3842.9524 9764 9764 9760 9755 9749 9743 9738 9734 9734 9737 9743 9751 9760
3849.2200 9768 9776 9783 9790 9796 9800 9799 9785 9759 9732 9719 9720 9729
3855.4875 9738 9746 9750 9750 9747 9744 9743 9743 9744 9743 9740 9736 9733
3861.7551 9734 9739 9746 9752 9755 9754 9749 9745 9744 9746 9750 9755 9759
3868.0225 9763 9765 9761 9753 9743 9737 9738 9743 9751 9760 9770 9776 9776
3874.2900 9770 9762 9754 9748 9742 9738 9736 9736 9740 9746 9754 9761 9764
3880.5576 9763 9759 9756 9755 9755 9757 9759 9761 9761 9759 9753 9746 9741
3886.8252 9738 9738 9739 9741 9744 9747 9749 9750 9749 9746 9743 9743 9744
3893.0925 9747 9750 9751 9750 9749 9747 9745 9743 9741 9739 9737 9735 9737
3899.3601 9743 9751 9759 9765 9767 9765 9760 9752 9745 9739 9736 9736 9740
3905.6277 9748 9756 9764 9769 9771 9769 9764 9757 9749 9741 9735 9730 9728
3911.8953 9727 9730 9735 9742 9748 9755 9760 9763 9765 9766 9765 9762 9758
3918.1626 9752 9746 9741 9740 9742 9745 9749 9752 9752 9752 9750 9749 9747
3924.4302 9744 9740 9737 9738 9743 9751 9761 9770 9774 9772 9765 9757 9750
3930.6978 9745 9744 9744 9746 9747 9748 9749 9752 9755 9760 9764 9767 9769
3936.9653 9768 9767 9766 9765 9765 9765 9766 9766 9764 9759 9753 9747 9743
3943.2327 9744 9750 9756 9761 9762 9760 9756 9753 9751 9752 9752 9751 9749
3949.5002 9748 9750 9756 9763 9768 9770 9769 9766 9763 9762 9762 9763 9764
3955.7678 9764 9764 9764 9764 9764 9763 9762 9762 9763 9763 9762 9759 9753
3962.0354 9746 9742 9742 9744 9750 9756 9762 9766 9768 9769 9769 9769 9767
3968.3027 9765 9761 9757 9753 9750 9749 9750 9753 9757 9759 9758 9756 9753
3974.5703 9753 9755 9760 9765 9766 9765 9760 9756 9753 9753 9755 9757 9758
3980.8379 9759 9759 9759 9759 9759 9758 9757 9757 9757 9758 9759 9761 9763
3987.1055 9765 9765 9764 9759 9753 9746 9742 9742 9746 9751 9754 9756 9757
3993.3728 9758 9762 9768 9773 9775 9775 9772 9768 9765 9761 9757 9753 9750
3999.6404 9748 9748
##END= 
